"Sample Set Id"	2597
"Sample Set Name"	"SAD_pmma_THF_033125"
"System Name"	"System I"
"Instrument Method Name"	"System I _ ELSD"
"SampleName"	"PMMA88.5kDa_THF"
"Injection"	1
"Vial"	"6"
"Channel"	"SATIN-2 "
0.01666667	8.935
0.03333333	8.936
0.05	8.94
0.06666667	8.924
0.08333333	8.919
0.1	8.928
0.1166667	8.94
0.1333333	8.943
0.15	8.926
0.1666667	8.955
0.1833333	8.96
0.2	8.952
0.2166667	8.921
0.2333333	8.903
0.25	8.946
0.2666667	8.947
0.2833333	8.925
0.3	8.936
0.3166667	8.961
0.3333333	8.908
0.35	8.902
0.3666667	8.93
0.3833333	8.929
0.4	8.901
0.4166667	8.907
0.4333333	8.916
0.45	8.942
0.4666667	8.951
0.4833333	8.943
0.5	8.937
0.5166667	8.928
0.5333333	8.936
0.55	8.913
0.5666667	8.948
0.5833333	8.962
0.6	8.953
0.6166667	8.948
0.6333333	8.916
0.65	8.905
0.6666667	8.926
0.6833333	8.92
0.7	8.923
0.7166667	8.927
0.7333333	8.949
0.75	8.93
0.7666667	8.935
0.7833333	8.961
0.8	8.95
0.8166667	8.908
0.8333333	8.917
0.85	8.916
0.8666667	8.925
0.8833333	8.937
0.9	8.94
0.9166667	8.939
0.9333333	8.954
0.95	8.929
0.9666667	8.907
0.9833333	8.906
1	8.931
1.016667	8.902
1.033333	8.885
1.05	8.893
1.066667	8.908
1.083333	8.907
1.1	8.916
1.116667	8.964
1.133333	8.929
1.15	8.915
1.166667	8.917
1.183333	8.954
1.2	8.948
1.216667	8.936
1.233333	8.909
1.25	8.915
1.266667	8.944
1.283333	8.899
1.3	8.93
1.316667	8.916
1.333333	8.952
1.35	8.961
1.366667	8.944
1.383333	8.942
1.4	8.939
1.416667	8.945
1.433333	8.916
1.45	8.921
1.466667	8.956
1.483333	8.945
1.5	8.932
1.516667	8.929
1.533333	8.926
1.55	8.947
1.566667	8.962
1.583333	8.966
1.6	8.935
1.616667	8.945
1.633333	8.929
1.65	8.948
1.666667	8.95
1.683333	8.943
1.7	8.945
1.716667	8.948
1.733333	8.932
1.75	8.963
1.766667	8.948
1.783333	8.953
1.8	8.949
1.816667	8.949
1.833333	8.966
1.85	8.965
1.866667	8.95
1.883333	8.944
1.9	8.927
1.916667	8.925
1.933333	8.946
1.95	8.949
1.966667	8.937
1.983333	8.944
2	8.944
2.016667	8.933
2.033333	8.949
2.05	8.916
2.066667	8.897
2.083333	8.923
2.1	8.929
2.116667	8.958
2.133333	8.954
2.15	8.944
2.166667	8.937
2.183333	8.927
2.2	8.938
2.216667	8.937
2.233333	8.929
2.25	8.954
2.266667	8.941
2.283333	8.921
2.3	8.921
2.316667	8.939
2.333333	8.957
2.35	8.933
2.366667	8.946
2.383333	8.936
2.4	8.94
2.416667	8.915
2.433333	8.931
2.45	8.955
2.466667	8.939
2.483333	8.935
2.5	8.949
2.516667	8.929
2.533333	8.935
2.55	8.949
2.566667	8.917
2.583333	8.923
2.6	8.94
2.616667	8.948
2.633333	8.975
2.65	8.971
2.666667	8.96
2.683333	8.944
2.7	8.94
2.716667	8.923
2.733333	8.951
2.75	8.934
2.766667	8.931
2.783333	8.928
2.8	8.928
2.816667	8.927
2.833333	8.9
2.85	8.914
2.866667	8.92
2.883333	8.941
2.9	8.932
2.916667	8.923
2.933333	8.936
2.95	8.924
2.966667	8.927
2.983333	8.934
3	8.941
3.016667	8.943
3.033333	8.945
3.05	8.921
3.066667	8.912
3.083333	8.927
3.1	8.922
3.116667	8.962
3.133333	8.943
3.15	8.949
3.166667	8.955
3.183333	8.928
3.2	8.923
3.216667	8.935
3.233333	8.932
3.25	8.912
3.266667	8.897
3.283333	8.914
3.3	8.914
3.316667	8.912
3.333333	8.934
3.35	8.941
3.366667	8.909
3.383333	8.906
3.4	8.939
3.416667	8.938
3.433333	8.932
3.45	8.915
3.466667	8.924
3.483333	8.943
3.5	8.943
3.516667	8.939
3.533333	8.937
3.55	8.945
3.566667	8.928
3.583333	8.928
3.6	8.914
3.616667	8.932
3.633333	8.905
3.65	8.907
3.666667	8.937
3.683333	8.957
3.7	8.95
3.716667	8.945
3.733333	8.949
3.75	8.934
3.766667	8.927
3.783333	8.967
3.8	8.936
3.816667	8.965
3.833333	8.984
3.85	8.94
3.866667	8.901
3.883333	8.926
3.9	8.931
3.916667	8.92
3.933333	8.918
3.95	8.897
3.966667	8.961
3.983333	8.959
4	8.914
4.016667	8.915
4.033333	8.929
4.05	8.915
4.066667	8.944
4.083333	8.933
4.1	8.937
4.116667	8.958
4.133333	8.967
4.15	8.979
4.166667	8.972
4.183333	8.96
4.2	8.93
4.216667	8.917
4.233333	8.928
4.25	8.939
4.266667	8.935
4.283333	8.931
4.3	8.936
4.316667	8.947
4.333333	8.945
4.35	8.929
4.366667	8.929
4.383333	8.934
4.4	8.945
4.416667	8.958
4.433333	8.944
4.45	8.95
4.466667	8.926
4.483333	8.959
4.5	8.969
4.516667	8.941
4.533333	8.928
4.55	8.918
4.566667	8.93
4.583333	8.942
4.6	8.902
4.616667	8.942
4.633333	8.95
4.65	8.939
4.666667	8.937
4.683333	8.934
4.7	8.94
4.716667	8.937
4.733333	8.945
4.75	8.904
4.766667	8.946
4.783333	8.948
4.8	8.926
4.816667	8.936
4.833333	8.952
4.85	8.924
4.866667	8.908
4.883333	8.927
4.9	8.908
4.916667	8.909
4.933333	8.902
4.95	8.899
4.966667	8.949
4.983333	8.938
5	8.928
5.016667	8.909
5.033333	8.923
5.05	8.958
5.066667	8.933
5.083333	8.93
5.1	8.93
5.116667	8.944
5.133333	8.948
5.15	8.947
5.166667	8.939
5.183333	8.969
5.2	8.938
5.216667	8.925
5.233333	8.964
5.25	8.951
5.266667	8.963
5.283333	8.953
5.3	8.96
5.316667	8.94
5.333333	8.937
5.35	8.942
5.366667	8.953
5.383333	8.97
5.4	8.971
5.416667	8.959
5.433333	8.936
5.45	8.933
5.466667	8.921
5.483333	8.951
5.5	8.963
5.516667	8.96
5.533333	8.974
5.55	8.952
5.566667	8.941
5.583333	8.935
5.6	8.927
5.616667	8.932
5.633333	8.943
5.65	8.938
5.666667	8.949
5.683333	8.939
5.7	8.942
5.716667	8.931
5.733333	8.953
5.75	8.92
5.766667	8.916
5.783333	8.924
5.8	8.929
5.816667	8.903
5.833333	8.898
5.85	8.908
5.866667	8.922
5.883333	8.901
5.9	8.916
5.916667	8.929
5.933333	8.945
5.95	8.92
5.966667	8.925
5.983333	8.945
6	8.949
6.016667	8.915
6.033333	8.922
6.05	8.919
6.066667	8.924
6.083333	8.923
6.1	8.944
6.116667	8.963
6.133333	8.925
6.15	8.917
6.166667	8.939
6.183333	8.955
6.2	8.945
6.216667	8.934
6.233333	8.936
6.25	8.942
6.266667	8.966
6.283333	8.919
6.3	8.927
6.316667	8.949
6.333333	8.938
6.35	8.918
6.366667	8.953
6.383333	8.93
6.4	8.94
6.416667	8.941
6.433333	8.946
6.45	8.924
6.466667	8.954
6.483333	8.945
6.5	8.933
6.516667	8.953
6.533333	8.933
6.55	8.934
6.566667	8.933
6.583333	8.931
6.6	8.933
6.616667	8.931
6.633333	8.959
6.65	8.968
6.666667	8.989
6.683333	8.981
6.7	8.998
6.716667	9.031
6.733333	9.106
6.75	9.185
6.766667	9.329
6.783333	9.45
6.8	9.769
6.816667	10.064
6.833333	10.505
6.85	11.199
6.866667	12.23
6.883333	13.38
6.9	14.808
6.916667	16.259
6.933333	18.441
6.95	20.872
6.966667	22.52
6.983333	25.077
7	27.335
7.016667	29.99
7.033333	31.285
7.05	33.59
7.066667	35.138
7.083333	36.724
7.1	39.324
7.116667	40.47
7.133333	41.472
7.15	41.344
7.166667	42.461
7.183333	42.66
7.2	42.721
7.216667	44.371
7.233333	44.952
7.25	43.598
7.266667	42.671
7.283333	43.333
7.3	43.23
7.316667	42.433
7.333333	41.93
7.35	41.698
7.366667	40.744
7.383333	39.926
7.4	40.013
7.416667	39.116
7.433333	38.366
7.45	37.729
7.466667	36.967
7.483333	35.521
7.5	34.548
7.516667	33.741
7.533333	32.87
7.55	33.038
7.566667	32.867
7.583333	32.402
7.6	31.638
7.616667	30.699
7.633333	29.922
7.65	29.201
7.666667	29.454
7.683333	28.269
7.7	27.743
7.716667	26.521
7.733333	26.365
7.75	25.601
7.766667	24.645
7.783333	24.256
7.8	24.102
7.816667	23.456
7.833333	22.836
7.85	22.644
7.866667	22.316
7.883333	21.751
7.9	21.114
7.916667	20.815
7.933333	20.752
7.95	20.176
7.966667	19.749
7.983333	19.191
8	19.279
8.016667	18.854
8.033333	18.322
8.05	17.721
8.066667	17.418
8.083333	17.311
8.1	16.919
8.116667	16.609
8.133333	16.61
8.15	16.297
8.166667	15.943
8.183333	15.783
8.2	15.887
8.216667	15.568
8.233333	15.278
8.25	15.369
8.266667	15.015
8.283333	14.605
8.3	14.372
8.316667	14.339
8.333333	14.23
8.35	14.106
8.366667	13.992
8.383333	14.252
8.4	13.924
8.416667	13.931
8.433333	14.224
8.45	13.955
8.466667	13.647
8.483333	13.552
8.5	13.435
8.516667	13.232
8.533333	13.151
8.55	13.183
8.566667	13.173
8.583333	13.03
8.6	12.888
8.616667	12.988
8.633333	12.853
8.65	12.955
8.666667	12.822
8.683333	12.785
8.7	12.7
8.716667	12.53
8.733333	12.548
8.75	12.428
8.766667	12.468
8.783333	12.354
8.8	12.139
8.816667	12.007
8.833333	12.038
8.85	12.033
8.866667	11.901
8.883333	11.839
8.9	11.717
8.916667	11.621
8.933333	11.684
8.95	11.802
8.966667	11.606
8.983333	11.373
9	11.266
9.016667	11.151
9.033333	11.131
9.05	10.999
9.066667	10.845
9.083333	10.84
9.1	10.775
9.116667	10.779
9.133333	10.638
9.15	10.44
9.166667	10.423
9.183333	10.369
9.2	10.367
9.216667	10.297
9.233333	10.179
9.25	10.106
9.266667	10.042
9.283333	9.931
9.3	9.912
9.316667	9.85
9.333333	9.788
9.35	9.766
9.366667	9.802
9.383333	9.792
9.4	9.727
9.416667	9.721
9.433333	9.6
9.45	9.566
9.466667	9.536
9.483333	9.517
9.5	9.531
9.516667	9.49
9.533333	9.479
9.55	9.468
9.566667	9.445
9.583333	9.348
9.6	9.344
9.616667	9.357
9.633333	9.364
9.65	9.348
9.666667	9.304
9.683333	9.273
9.7	9.271
9.716667	9.22
9.733333	9.223
9.75	9.174
9.766667	9.16
9.783333	9.16
9.8	9.158
9.816667	9.17
9.833333	9.191
9.85	9.148
9.866667	9.142
9.883333	9.116
9.9	9.11
9.916667	9.107
9.933333	9.098
9.95	9.112
9.966667	9.06
9.983333	9.077
10	9.108
10.01667	9.078
10.03333	9.058
10.05	9.086
10.06667	9.093
10.08333	9.089
10.1	9.076
10.11667	9.043
10.13333	9.05
10.15	9.06
10.16667	9.043
10.18333	9.047
10.2	9.042
10.21667	9.024
10.23333	8.985
10.25	8.987
10.26667	9.006
10.28333	9.015
10.3	8.998
10.31667	9.005
10.33333	9.001
10.35	8.969
10.36667	8.985
10.38333	8.973
10.4	8.947
10.41667	8.957
10.43333	8.983
10.45	8.956
10.46667	8.96
10.48333	8.986
10.5	8.963
10.51667	8.991
10.53333	9.001
10.55	8.984
10.56667	8.972
10.58333	8.954
10.6	8.96
10.61667	8.96
10.63333	8.974
10.65	8.948
10.66667	8.951
10.68333	8.971
10.7	8.955
10.71667	8.958
10.73333	8.94
10.75	8.941
10.76667	8.953
10.78333	8.995
10.8	8.97
10.81667	8.946
10.83333	8.954
10.85	8.952
10.86667	8.919
10.88333	8.941
10.9	8.975
10.91667	8.954
10.93333	8.931
10.95	8.946
10.96667	8.957
10.98333	8.925
11	8.947
11.01667	8.929
11.03333	8.926
11.05	8.946
11.06667	8.964
11.08333	8.961
11.1	8.943
11.11667	8.935
11.13333	8.972
11.15	8.937
11.16667	8.961
11.18333	8.959
11.2	8.951
11.21667	8.954
11.23333	8.957
11.25	8.931
11.26667	8.944
11.28333	8.936
11.3	8.957
11.31667	8.93
11.33333	8.924
11.35	8.932
11.36667	8.912
11.38333	8.926
11.4	8.922
11.41667	8.951
11.43333	8.941
11.45	8.917
11.46667	8.914
11.48333	8.959
11.5	8.953
11.51667	8.939
11.53333	8.942
11.55	8.942
11.56667	8.9
11.58333	8.91
11.6	8.932
11.61667	8.938
11.63333	8.939
11.65	8.936
11.66667	8.946
11.68333	8.944
11.7	8.927
11.71667	8.917
11.73333	8.922
11.75	8.92
11.76667	8.935
11.78333	8.922
11.8	8.935
11.81667	8.929
11.83333	8.957
11.85	8.968
11.86667	8.981
11.88333	8.95
11.9	8.928
11.91667	8.938
11.93333	8.953
11.95	8.957
11.96667	8.956
11.98333	8.925
12	8.926
12.01667	8.942
12.03333	8.959
12.05	8.927
12.06667	8.917
12.08333	8.93
12.1	8.922
12.11667	8.918
12.13333	8.905
12.15	8.942
12.16667	8.918
12.18333	8.927
12.2	8.907
12.21667	8.908
12.23333	8.934
12.25	8.954
12.26667	8.964
12.28333	8.929
12.3	8.909
12.31667	8.931
12.33333	8.972
12.35	8.965
12.36667	8.95
12.38333	8.975
12.4	8.949
12.41667	8.937
12.43333	8.929
12.45	8.94
12.46667	8.947
12.48333	8.934
12.5	8.954
12.51667	8.924
12.53333	8.934
12.55	8.937
12.56667	8.923
12.58333	8.941
12.6	8.937
12.61667	8.93
12.63333	8.932
12.65	8.944
12.66667	8.919
12.68333	8.933
12.7	8.928
12.71667	8.939
12.73333	8.955
12.75	8.977
12.76667	8.967
12.78333	8.942
12.8	8.937
12.81667	8.945
12.83333	8.955
12.85	8.959
12.86667	8.96
12.88333	8.929
12.9	8.947
12.91667	8.931
12.93333	8.917
12.95	8.93
12.96667	8.951
12.98333	8.924
13	8.944
13.01667	8.925
13.03333	8.936
13.05	8.95
13.06667	8.939
13.08333	8.947
13.1	8.919
13.11667	8.925
13.13333	8.933
13.15	8.934
13.16667	8.94
13.18333	8.935
13.2	8.941
13.21667	8.913
13.23333	8.93
13.25	8.92
13.26667	8.95
13.28333	8.948
13.3	8.919
13.31667	8.929
13.33333	8.914
13.35	8.9
13.36667	8.945
13.38333	8.935
13.4	8.926
13.41667	8.947
13.43333	8.966
13.45	8.925
13.46667	8.935
13.48333	8.936
13.5	8.938
13.51667	8.939
13.53333	8.912
13.55	8.905
13.56667	8.933
13.58333	8.905
13.6	8.911
13.61667	8.914
13.63333	8.946
13.65	8.929
13.66667	8.913
13.68333	8.917
13.7	8.952
13.71667	8.951
13.73333	8.937
13.75	8.903
13.76667	8.92
13.78333	8.913
13.8	8.95
13.81667	8.946
13.83333	8.937
13.85	8.93
13.86667	8.926
13.88333	8.928
13.9	8.932
13.91667	8.937
13.93333	8.921
13.95	8.938
13.96667	8.944
13.98333	8.918
14	8.941
14.01667	8.953
14.03333	8.938
14.05	8.935
14.06667	8.912
14.08333	8.945
14.1	8.956
14.11667	8.947
14.13333	8.918
14.15	8.925
14.16667	8.919
14.18333	8.925
14.2	8.94
14.21667	8.928
14.23333	8.92
14.25	8.912
14.26667	8.956
14.28333	8.937
14.3	8.903
14.31667	8.915
14.33333	8.974
14.35	8.95
14.36667	8.919
14.38333	8.914
14.4	8.917
14.41667	8.93
14.43333	8.947
14.45	8.923
14.46667	8.927
14.48333	8.917
14.5	8.91
14.51667	8.924
14.53333	8.924
14.55	8.926
14.56667	8.919
14.58333	8.912
14.6	8.925
14.61667	8.9
14.63333	8.901
14.65	8.899
14.66667	8.939
14.68333	8.913
14.7	8.934
14.71667	8.929
14.73333	8.944
14.75	8.935
14.76667	8.959
14.78333	8.956
14.8	8.941
14.81667	8.981
14.83333	8.95
14.85	8.942
14.86667	8.943
14.88333	8.955
14.9	8.925
14.91667	8.943
14.93333	8.961
14.95	8.971
14.96667	8.958
14.98333	8.94
15	8.959
15.01667	8.944
15.03333	8.923
15.05	8.907
15.06667	8.91
15.08333	8.922
15.1	8.916
15.11667	8.933
15.13333	8.942
15.15	8.942
15.16667	8.924
15.18333	8.912
15.2	8.97
15.21667	8.954
15.23333	8.945
15.25	8.961
15.26667	8.936
15.28333	8.917
15.3	8.954
15.31667	8.986
15.33333	8.951
15.35	8.945
15.36667	8.951
15.38333	8.925
15.4	8.927
15.41667	8.931
15.43333	8.942
15.45	8.923
15.46667	8.946
15.48333	8.958
15.5	8.938
15.51667	8.944
15.53333	8.926
15.55	8.933
15.56667	8.98
15.58333	8.93
15.6	8.918
15.61667	8.938
15.63333	8.964
15.65	8.949
15.66667	8.92
15.68333	8.917
15.7	8.924
15.71667	8.952
15.73333	8.943
15.75	8.916
15.76667	8.955
15.78333	8.931
15.8	8.931
15.81667	8.937
15.83333	8.913
15.85	8.947
15.86667	8.924
15.88333	8.927
15.9	8.932
15.91667	8.917
15.93333	8.903
15.95	8.926
15.96667	8.954
15.98333	8.943
16	8.959
16.01667	8.941
16.03333	8.937
16.05	8.944
16.06667	8.922
16.08333	8.935
16.1	8.927
16.11667	8.925
16.13333	8.942
16.15	8.948
16.16667	8.929
16.18333	8.969
16.2	8.932
16.21667	8.906
16.23333	8.923
16.25	8.948
16.26667	8.956
16.28333	8.961
16.3	8.92
16.31667	8.925
16.33333	8.911
16.35	8.912
16.36667	8.933
16.38333	8.937
16.4	8.94
16.41667	8.912
16.43333	8.896
16.45	8.914
16.46667	8.941
16.48333	8.926
16.5	8.912
16.51667	8.911
16.53333	8.891
16.55	8.913
16.56667	8.915
16.58333	8.931
16.6	8.928
16.61667	8.916
16.63333	8.901
16.65	8.917
16.66667	8.932
16.68333	8.916
16.7	8.932
16.71667	8.934
16.73333	8.926
16.75	8.91
16.76667	8.941
16.78333	8.953
16.8	8.941
16.81667	8.928
16.83333	8.907
16.85	8.917
16.86667	8.916
16.88333	8.94
16.9	8.929
16.91667	8.907
16.93333	8.912
16.95	8.923
16.96667	8.943
16.98333	8.939
17	8.912
17.01667	8.93
17.03333	8.935
17.05	8.939
17.06667	8.927
17.08333	8.915
17.1	8.912
17.11667	8.937
17.13333	8.937
17.15	8.939
17.16667	8.928
17.18333	8.938
17.2	8.939
17.21667	8.927
17.23333	8.939
17.25	8.935
17.26667	8.929
17.28333	8.917
17.3	8.888
17.31667	8.925
17.33333	8.94
17.35	8.946
17.36667	8.942
17.38333	8.922
17.4	8.933
17.41667	8.954
17.43333	8.929
17.45	8.94
17.46667	8.95
17.48333	8.947
17.5	8.948
17.51667	8.939
17.53333	8.953
17.55	8.935
17.56667	8.932
17.58333	8.926
17.6	8.92
17.61667	8.951
17.63333	8.94
17.65	8.936
17.66667	8.921
17.68333	8.918
17.7	8.936
17.71667	8.931
17.73333	8.91
17.75	8.914
17.76667	8.933
17.78333	8.929
17.8	8.936
17.81667	8.923
17.83333	8.941
17.85	8.91
17.86667	8.91
17.88333	8.926
17.9	8.917
17.91667	8.934
17.93333	8.936
17.95	8.931
17.96667	8.946
17.98333	8.913
18	8.909
18.01667	8.928
18.03333	8.923
18.05	8.922
18.06667	8.937
18.08333	8.924
18.1	8.911
18.11667	8.914
18.13333	8.944
18.15	8.933
18.16667	8.955
18.18333	8.932
18.2	8.931
18.21667	8.918
18.23333	8.935
18.25	8.965
18.26667	8.96
18.28333	8.944
18.3	8.923
18.31667	8.934
18.33333	8.936
18.35	8.948
18.36667	8.946
18.38333	8.927
18.4	8.918
18.41667	8.929
18.43333	8.935
18.45	8.947
18.46667	8.917
18.48333	8.901
18.5	8.929
18.51667	8.94
18.53333	8.909
18.55	8.924
18.56667	8.933
18.58333	8.959
18.6	8.943
18.61667	8.948
18.63333	8.934
18.65	8.94
18.66667	8.938
18.68333	8.955
18.7	8.947
18.71667	8.964
18.73333	8.932
18.75	8.917
18.76667	8.937
18.78333	8.924
18.8	8.905
18.81667	8.921
18.83333	8.923
18.85	8.934
18.86667	8.943
18.88333	8.916
18.9	8.92
18.91667	8.911
18.93333	8.921
18.95	8.919
18.96667	8.932
18.98333	8.941
19	8.93
19.01667	8.926
19.03333	8.939
19.05	8.932
19.06667	8.909
19.08333	8.91
19.1	8.911
19.11667	8.936
19.13333	8.915
19.15	8.921
19.16667	8.936
19.18333	8.968
19.2	8.96
19.21667	8.955
19.23333	8.957
19.25	8.949
19.26667	8.915
19.28333	8.916
19.3	8.962
19.31667	8.954
19.33333	8.965
19.35	8.944
19.36667	8.945
19.38333	8.966
19.4	8.927
19.41667	8.958
19.43333	8.948
19.45	8.955
19.46667	8.958
19.48333	8.935
19.5	8.925
19.51667	8.923
19.53333	8.925
19.55	8.941
19.56667	8.952
19.58333	8.954
19.6	8.936
19.61667	8.934
19.63333	8.961
19.65	8.939
19.66667	8.924
19.68333	8.891
19.7	8.911
19.71667	8.929
19.73333	8.945
19.75	8.916
19.76667	8.937
19.78333	8.934
19.8	8.932
19.81667	8.932
19.83333	8.943
19.85	8.954
19.86667	8.932
19.88333	8.934
19.9	8.911
19.91667	8.927
19.93333	8.933
19.95	8.941
19.96667	8.971
19.98333	8.938
20	8.95
